PE UV       SUBTECH     SPECTRUM    ASCII       PEDS        4.00        
   -1
AISC-23_Single layer_Bot Si_rg.Sample.asc
25/01/29
09:43:50.00
25/01/29
09:43:50.00
Asahi Glass I Pvt Ltd, Taloja

250.000000
1
Lambda 1050
1050L1102031
PerkinElmer UV WinLab 7.3.0.340 / 1.61.00 Lambda 900

0
0
3350/servo 800/4
0
0
UV/VIS
1
1
1
RBeamAtt,SBeamAtt,150mm sphere / downward view, WB InGaAs Detector
0
0
0
0
Program
Program
3350/servo 800/4
3350/0.2 800/0.2
3350/0.2 800/0.2
0
14.00
 
 
 
0
 
800
319.2
800
Front
100
 
S:100 R:100
 
0
0
0
 
0
 
 
 
0
 
 
0
0
0
0
0
 
 
 
 
0
0


0
0

0


#HDR
-1
-1
#GR
nm
%R
1.0
0.0
2500.000000
-5.000000
451
8
14.806804
5.062830
#DATA
2500.000000	7.334559
2495.000000	7.175071
2490.000000	7.057073
2485.000000	7.036790
2480.000000	6.902883
2475.000000	7.101829
2470.000000	7.001665
2465.000000	7.109196
2460.000000	7.123357
2455.000000	6.983158
2450.000000	7.063944
2445.000000	7.009101
2440.000000	7.007370
2435.000000	7.095728
2430.000000	7.066212
2425.000000	7.114523
2420.000000	7.045909
2415.000000	7.082203
2410.000000	7.149633
2405.000000	7.146624
2400.000000	7.152911
2395.000000	7.152141
2390.000000	7.191830
2385.000000	7.164893
2380.000000	7.190444
2375.000000	7.186256
2370.000000	7.203445
2365.000000	7.197184
2360.000000	7.221680
2355.000000	7.208234
2350.000000	7.178342
2345.000000	7.229007
2340.000000	7.230474
2335.000000	7.249029
2330.000000	7.210037
2325.000000	7.218574
2320.000000	7.233856
2315.000000	7.211731
2310.000000	7.228724
2305.000000	7.215511
2300.000000	7.210311
2295.000000	7.199496
2290.000000	7.194765
2285.000000	7.220887
2280.000000	7.194087
2275.000000	7.193797
2270.000000	7.180515
2265.000000	7.173228
2260.000000	7.173082
2255.000000	7.158041
2250.000000	7.149550
2245.000000	7.147293
2240.000000	7.124409
2235.000000	7.115085
2230.000000	7.127717
2225.000000	7.133636
2220.000000	7.132181
2215.000000	7.127686
2210.000000	7.126687
2205.000000	7.140269
2200.000000	7.167139
2195.000000	7.187088
2190.000000	7.220078
2185.000000	7.235958
2180.000000	7.260926
2175.000000	7.294772
2170.000000	7.327305
2165.000000	7.327460
2160.000000	7.356103
2155.000000	7.366404
2150.000000	7.393880
2145.000000	7.410950
2140.000000	7.405998
2135.000000	7.438341
2130.000000	7.444263
2125.000000	7.431047
2120.000000	7.445731
2115.000000	7.453882
2110.000000	7.455778
2105.000000	7.453378
2100.000000	7.466243
2095.000000	7.447118
2090.000000	7.459543
2085.000000	7.470900
2080.000000	7.470226
2075.000000	7.475620
2070.000000	7.463192
2065.000000	7.462335
2060.000000	7.479984
2055.000000	7.468390
2050.000000	7.466750
2045.000000	7.460329
2040.000000	7.461344
2035.000000	7.476835
2030.000000	7.465097
2025.000000	7.459045
2020.000000	7.471398
2015.000000	7.473088
2010.000000	7.476975
2005.000000	7.498903
2000.000000	7.508585
1995.000000	7.519916
1990.000000	7.525654
1985.000000	7.529471
1980.000000	7.535104
1975.000000	7.536141
1970.000000	7.539649
1965.000000	7.541405
1960.000000	7.552271
1955.000000	7.543747
1950.000000	7.537611
1945.000000	7.538271
1940.000000	7.543625
1935.000000	7.553441
1930.000000	7.563700
1925.000000	7.560375
1920.000000	7.571333
1915.000000	7.572531
1910.000000	7.573501
1905.000000	7.592013
1900.000000	7.609975
1895.000000	7.638895
1890.000000	7.660093
1885.000000	7.663073
1880.000000	7.663973
1875.000000	7.674726
1870.000000	7.688063
1865.000000	7.681587
1860.000000	7.679471
1855.000000	7.669260
1850.000000	7.690823
1845.000000	7.701438
1840.000000	7.709389
1835.000000	7.714481
1830.000000	7.726588
1825.000000	7.726056
1820.000000	7.728500
1815.000000	7.739956
1810.000000	7.743856
1805.000000	7.750125
1800.000000	7.763625
1795.000000	7.767307
1790.000000	7.768723
1785.000000	7.778846
1780.000000	7.784215
1775.000000	7.796258
1770.000000	7.802867
1765.000000	7.818956
1760.000000	7.829287
1755.000000	7.827596
1750.000000	7.835908
1745.000000	7.847881
1740.000000	7.861112
1735.000000	7.857678
1730.000000	7.852223
1725.000000	7.865258
1720.000000	7.867883
1715.000000	7.867381
1710.000000	7.863977
1705.000000	7.872284
1700.000000	7.881425
1695.000000	7.872890
1690.000000	7.884009
1685.000000	7.887399
1680.000000	7.880837
1675.000000	7.884578
1670.000000	7.895535
1665.000000	7.888967
1660.000000	7.888367
1655.000000	7.898452
1650.000000	7.903495
1645.000000	7.908164
1640.000000	7.910773
1635.000000	7.908652
1630.000000	7.907330
1625.000000	7.916424
1620.000000	7.913826
1615.000000	7.908727
1610.000000	7.915464
1605.000000	7.910545
1600.000000	7.907610
1595.000000	7.906179
1590.000000	7.904384
1585.000000	7.895874
1580.000000	7.893868
1575.000000	7.890092
1570.000000	7.882048
1565.000000	7.878869
1560.000000	7.863228
1555.000000	7.847606
1550.000000	7.853803
1545.000000	7.854933
1540.000000	7.843425
1535.000000	7.836741
1530.000000	7.833676
1525.000000	7.834444
1520.000000	7.833293
1515.000000	7.822918
1510.000000	7.815124
1505.000000	7.824025
1500.000000	7.812904
1495.000000	7.802808
1490.000000	7.792938
1485.000000	7.779854
1480.000000	7.771952
1475.000000	7.759415
1470.000000	7.749044
1465.000000	7.742011
1460.000000	7.729258
1455.000000	7.714255
1450.000000	7.699110
1445.000000	7.692690
1440.000000	7.684936
1435.000000	7.666483
1430.000000	7.657407
1425.000000	7.649279
1420.000000	7.644507
1415.000000	7.637952
1410.000000	7.628244
1405.000000	7.617078
1400.000000	7.609099
1395.000000	7.616032
1390.000000	7.619323
1385.000000	7.611847
1380.000000	7.611072
1375.000000	7.604105
1370.000000	7.586402
1365.000000	7.576768
1360.000000	7.571925
1355.000000	7.569766
1350.000000	7.566308
1345.000000	7.557262
1340.000000	7.553987
1335.000000	7.555531
1330.000000	7.555734
1325.000000	7.546833
1320.000000	7.545483
1315.000000	7.543000
1310.000000	7.538750
1305.000000	7.528276
1300.000000	7.522153
1295.000000	7.517133
1290.000000	7.512876
1285.000000	7.507229
1280.000000	7.497477
1275.000000	7.493359
1270.000000	7.495146
1265.000000	7.488244
1260.000000	7.484851
1255.000000	7.483764
1250.000000	7.485114
1245.000000	7.491868
1240.000000	7.487977
1235.000000	7.479695
1230.000000	7.477830
1225.000000	7.478124
1220.000000	7.474044
1215.000000	7.473791
1210.000000	7.479962
1205.000000	7.484271
1200.000000	7.490509
1195.000000	7.486385
1190.000000	7.488247
1185.000000	7.498229
1180.000000	7.502819
1175.000000	7.507654
1170.000000	7.511636
1165.000000	7.514247
1160.000000	7.510218
1155.000000	7.512043
1150.000000	7.509769
1145.000000	7.512358
1140.000000	7.513277
1135.000000	7.511512
1130.000000	7.518380
1125.000000	7.521035
1120.000000	7.536320
1115.000000	7.554384
1110.000000	7.558448
1105.000000	7.568152
1100.000000	7.576741
1095.000000	7.575407
1090.000000	7.573998
1085.000000	7.569891
1080.000000	7.576409
1075.000000	7.589267
1070.000000	7.593211
1065.000000	7.599810
1060.000000	7.607699
1055.000000	7.616759
1050.000000	7.628749
1045.000000	7.634664
1040.000000	7.634634
1035.000000	7.642008
1030.000000	7.653664
1025.000000	7.662296
1020.000000	7.663058
1015.000000	7.672336
1010.000000	7.687994
1005.000000	7.688635
1000.000000	7.697611
995.000000	7.711920
990.000000	7.714930
985.000000	7.712516
980.000000	7.715375
975.000000	7.722747
970.000000	7.719774
965.000000	7.714719
960.000000	7.715163
955.000000	7.711877
950.000000	7.723815
945.000000	7.749378
940.000000	7.768386
935.000000	7.789691
930.000000	7.809240
925.000000	7.820858
920.000000	7.842245
915.000000	7.869531
910.000000	7.893261
905.000000	7.897013
900.000000	7.925905
895.000000	7.950378
890.000000	7.994222
885.000000	8.012642
880.000000	8.058052
875.000000	8.085992
870.000000	8.107723
865.000000	8.167059
860.000000	8.183310
855.000000	8.221623
850.000000	8.289136
845.000000	8.240497
840.000000	8.259381
835.000000	8.202730
830.000000	8.279079
825.000000	8.393415
820.000000	8.441353
815.000000	8.510019
810.000000	8.621197
805.000000	8.689770
800.000000	8.708426
795.000000	8.570538
790.000000	8.433530
785.000000	8.478428
780.000000	8.562073
775.000000	8.621548
770.000000	8.672649
765.000000	8.725519
760.000000	8.790666
755.000000	8.828681
750.000000	8.885780
745.000000	8.924419
740.000000	8.958748
735.000000	9.030864
730.000000	9.111117
725.000000	9.171002
720.000000	9.227361
715.000000	9.291725
710.000000	9.370033
705.000000	9.416956
700.000000	9.464352
695.000000	9.538972
690.000000	9.587642
685.000000	9.656417
680.000000	9.736431
675.000000	9.810218
670.000000	9.872315
665.000000	9.919936
660.000000	9.976126
655.000000	10.037108
650.000000	10.106801
645.000000	10.191079
640.000000	10.261759
635.000000	10.330493
630.000000	10.408377
625.000000	10.483458
620.000000	10.562899
615.000000	10.655217
610.000000	10.730151
605.000000	10.787358
600.000000	10.863899
595.000000	10.941165
590.000000	11.029910
585.000000	11.116943
580.000000	11.197371
575.000000	11.292776
570.000000	11.371254
565.000000	11.440610
560.000000	11.517722
555.000000	11.618311
550.000000	11.709003
545.000000	11.786232
540.000000	11.844426
535.000000	11.919835
530.000000	12.025355
525.000000	12.110510
520.000000	12.195964
515.000000	12.290552
510.000000	12.369562
505.000000	12.468241
500.000000	12.549734
495.000000	12.632451
490.000000	12.740198
485.000000	12.822701
480.000000	12.879259
475.000000	12.982467
470.000000	13.113560
465.000000	13.234293
460.000000	13.245763
455.000000	13.299446
450.000000	13.388063
445.000000	13.393875
440.000000	13.490658
435.000000	13.616988
430.000000	13.716066
425.000000	13.854561
420.000000	13.963049
415.000000	14.154967
410.000000	14.384341
405.000000	14.611341
400.000000	14.719403
395.000000	14.806804
390.000000	14.665808
385.000000	14.306292
380.000000	14.211272
375.000000	14.364155
370.000000	14.597228
365.000000	14.432844
360.000000	14.396551
355.000000	13.883331
350.000000	12.552712
345.000000	10.743548
340.000000	8.741160
335.000000	7.432248
330.000000	6.121577
325.000000	5.740788
320.000000	6.061582
315.000000	5.475634
310.000000	5.062830
305.000000	5.102514
300.000000	5.112729
295.000000	5.169166
290.000000	5.295701
285.000000	5.593285
280.000000	5.879850
275.000000	5.955143
270.000000	5.953600
265.000000	6.090581
260.000000	6.362127
255.000000	6.953255
250.000000	7.518283
