PE UV       SUBTECH     SPECTRUM    ASCII       PEDS        4.00        
   -1
AISC-23_Single layer_Bot Si_tr.Sample.asc
25/01/29
10:03:11.00
25/01/29
10:03:11.00
Asahi Glass I Pvt Ltd, Taloja

250.000000
1
Lambda 1050
1050L1102031
PerkinElmer UV WinLab 7.3.0.340 / 1.61.00 Lambda 900

0
0
3350/servo 800/4
0
0
UV/VIS
1
1
1
RBeamAtt,SBeamAtt,150mm sphere / downward view, WB InGaAs Detector
0
0
0
0
Program
Program
3350/servo 800/4
3350/0.2 800/0.2
3350/0.2 800/0.2
0
14.00
 
 
 
0
 
800
319.2
800
Front
100
 
S:100 R:100
 
0
0
0
 
0
 
 
 
0
 
 
0
0
0
0
0
 
 
 
 
0
0


0
0

0


#HDR
-1
-1
#GR
nm
%T
1.0
0.0
2500.000000
-5.000000
451
8
85.862151
-0.312777
#DATA
2500.000000	77.375400
2495.000000	77.129053
2490.000000	77.311768
2485.000000	77.572099
2480.000000	77.641218
2475.000000	77.571965
2470.000000	77.800868
2465.000000	77.861062
2460.000000	78.009760
2455.000000	78.178373
2450.000000	78.348678
2445.000000	78.440312
2440.000000	78.603398
2435.000000	78.657702
2430.000000	78.889175
2425.000000	78.935166
2420.000000	79.100119
2415.000000	79.173121
2410.000000	79.263538
2405.000000	79.304942
2400.000000	79.408741
2395.000000	79.483115
2390.000000	79.515979
2385.000000	79.545606
2380.000000	79.547615
2375.000000	79.554055
2370.000000	79.635266
2365.000000	79.644326
2360.000000	79.678228
2355.000000	79.701490
2350.000000	79.637428
2345.000000	79.667465
2340.000000	79.650949
2335.000000	79.637608
2330.000000	79.575997
2325.000000	79.591502
2320.000000	79.519246
2315.000000	79.478458
2310.000000	79.353539
2305.000000	79.333241
2300.000000	79.288831
2295.000000	79.232238
2290.000000	79.166663
2285.000000	79.105987
2280.000000	79.026962
2275.000000	78.898656
2270.000000	78.805324
2265.000000	78.712703
2260.000000	78.613888
2255.000000	78.490384
2250.000000	78.408049
2245.000000	78.317337
2240.000000	78.215195
2235.000000	78.149362
2230.000000	78.110994
2225.000000	78.069861
2220.000000	78.085226
2215.000000	78.143396
2210.000000	78.227047
2205.000000	78.345974
2200.000000	78.552321
2195.000000	78.773961
2190.000000	79.047225
2185.000000	79.322443
2180.000000	79.598139
2175.000000	79.832338
2170.000000	80.060136
2165.000000	80.201045
2160.000000	80.350993
2155.000000	80.434481
2150.000000	80.531823
2145.000000	80.578538
2140.000000	80.623325
2135.000000	80.680795
2130.000000	80.723549
2125.000000	80.757269
2120.000000	80.763487
2115.000000	80.786087
2110.000000	80.798717
2105.000000	80.816089
2100.000000	80.800168
2095.000000	80.819421
2090.000000	80.823214
2085.000000	80.802216
2080.000000	80.809334
2075.000000	80.810477
2070.000000	80.802684
2065.000000	80.792100
2060.000000	80.786900
2055.000000	80.771762
2050.000000	80.758937
2045.000000	80.762434
2040.000000	80.737615
2035.000000	80.725188
2030.000000	80.714139
2025.000000	80.710879
2020.000000	80.723533
2015.000000	80.703171
2010.000000	80.716121
2005.000000	80.704365
2000.000000	80.707795
1995.000000	80.702919
1990.000000	80.713999
1985.000000	80.711017
1980.000000	80.727239
1975.000000	80.740582
1970.000000	80.736853
1965.000000	80.746155
1960.000000	80.746704
1955.000000	80.764662
1950.000000	80.745092
1945.000000	80.762732
1940.000000	80.788597
1935.000000	80.799108
1930.000000	80.792671
1925.000000	80.790137
1920.000000	80.800615
1915.000000	80.791607
1910.000000	80.803322
1905.000000	80.805557
1900.000000	80.820537
1895.000000	80.811694
1890.000000	80.820530
1885.000000	80.824718
1880.000000	80.803846
1875.000000	80.798763
1870.000000	80.804055
1865.000000	80.814926
1860.000000	80.840158
1855.000000	80.843217
1850.000000	80.844251
1845.000000	80.861697
1840.000000	80.887143
1835.000000	80.915359
1830.000000	80.920608
1825.000000	80.938850
1820.000000	80.951630
1815.000000	80.972581
1810.000000	80.997005
1805.000000	81.020425
1800.000000	81.029302
1795.000000	81.053002
1790.000000	81.068356
1785.000000	81.079670
1780.000000	81.105756
1775.000000	81.125399
1770.000000	81.141935
1765.000000	81.144794
1760.000000	81.158984
1755.000000	81.176760
1750.000000	81.182309
1745.000000	81.212294
1740.000000	81.230329
1735.000000	81.241575
1730.000000	81.252407
1725.000000	81.257569
1720.000000	81.272745
1715.000000	81.268295
1710.000000	81.261559
1705.000000	81.272055
1700.000000	81.276964
1695.000000	81.262099
1690.000000	81.269413
1685.000000	81.254711
1680.000000	81.239453
1675.000000	81.229399
1670.000000	81.207119
1665.000000	81.188697
1660.000000	81.164545
1655.000000	81.136463
1650.000000	81.110507
1645.000000	81.073456
1640.000000	81.048035
1635.000000	81.016894
1630.000000	80.958518
1625.000000	80.893070
1620.000000	80.831872
1615.000000	80.777073
1610.000000	80.734394
1605.000000	80.670458
1600.000000	80.613701
1595.000000	80.547830
1590.000000	80.479077
1585.000000	80.420958
1580.000000	80.353801
1575.000000	80.272505
1570.000000	80.163123
1565.000000	80.082429
1560.000000	80.005540
1555.000000	79.906129
1550.000000	79.799983
1545.000000	79.698350
1540.000000	79.588748
1535.000000	79.471016
1530.000000	79.358552
1525.000000	79.245506
1520.000000	79.131352
1515.000000	79.008743
1510.000000	78.872584
1505.000000	78.744367
1500.000000	78.617134
1495.000000	78.487745
1490.000000	78.352951
1485.000000	78.208543
1480.000000	78.068982
1475.000000	77.939317
1470.000000	77.776652
1465.000000	77.629778
1460.000000	77.484157
1455.000000	77.319947
1450.000000	77.148051
1445.000000	76.977785
1440.000000	76.814039
1435.000000	76.634732
1430.000000	76.448299
1425.000000	76.289032
1420.000000	76.136021
1415.000000	75.974725
1410.000000	75.823499
1405.000000	75.693521
1400.000000	75.580790
1395.000000	75.494063
1390.000000	75.422285
1385.000000	75.345969
1380.000000	75.245291
1375.000000	75.121706
1370.000000	75.005722
1365.000000	74.872590
1360.000000	74.725731
1355.000000	74.587876
1350.000000	74.452284
1345.000000	74.336316
1340.000000	74.206689
1335.000000	74.081005
1330.000000	73.959010
1325.000000	73.827103
1320.000000	73.704755
1315.000000	73.582139
1310.000000	73.465649
1305.000000	73.345385
1300.000000	73.228980
1295.000000	73.120337
1290.000000	73.003536
1285.000000	72.905515
1280.000000	72.801713
1275.000000	72.686838
1270.000000	72.598137
1265.000000	72.504784
1260.000000	72.402371
1255.000000	72.306688
1250.000000	72.216375
1245.000000	72.125234
1240.000000	72.040210
1235.000000	71.958326
1230.000000	71.878689
1225.000000	71.804919
1220.000000	71.734876
1215.000000	71.671053
1210.000000	71.598922
1205.000000	71.529008
1200.000000	71.464813
1195.000000	71.410711
1190.000000	71.346706
1185.000000	71.293734
1180.000000	71.247861
1175.000000	71.190054
1170.000000	71.134671
1165.000000	71.093519
1160.000000	71.045265
1155.000000	71.005640
1150.000000	70.971943
1145.000000	70.933955
1140.000000	70.901020
1135.000000	70.855114
1130.000000	70.812838
1125.000000	70.776888
1120.000000	70.748057
1115.000000	70.722382
1110.000000	70.702283
1105.000000	70.683823
1100.000000	70.658463
1095.000000	70.642929
1090.000000	70.633205
1085.000000	70.628050
1080.000000	70.615323
1075.000000	70.591585
1070.000000	70.587640
1065.000000	70.579643
1060.000000	70.581813
1055.000000	70.585199
1050.000000	70.586145
1045.000000	70.596591
1040.000000	70.601650
1035.000000	70.605691
1030.000000	70.616161
1025.000000	70.623203
1020.000000	70.631243
1015.000000	70.663760
1010.000000	70.694950
1005.000000	70.708409
1000.000000	70.731868
995.000000	70.770086
990.000000	70.809658
985.000000	70.847976
980.000000	70.887177
975.000000	70.922038
970.000000	70.966814
965.000000	71.014013
960.000000	71.068201
955.000000	71.122265
950.000000	71.170995
945.000000	71.251257
940.000000	71.355270
935.000000	71.452550
930.000000	71.545286
925.000000	71.639979
920.000000	71.735416
915.000000	71.811375
910.000000	71.920083
905.000000	72.049389
900.000000	72.161891
895.000000	72.257138
890.000000	72.384490
885.000000	72.490676
880.000000	72.642784
875.000000	72.817468
870.000000	72.970989
865.000000	73.162896
860.000000	73.320477
855.000000	73.390808
850.000000	73.649131
845.000000	73.859991
840.000000	74.011414
835.000000	74.193184
830.000000	74.332460
825.000000	74.545313
820.000000	74.712603
815.000000	75.042355
810.000000	75.253150
805.000000	75.430544
800.000000	75.750730
795.000000	75.968008
790.000000	76.189089
785.000000	76.502159
780.000000	76.795951
775.000000	76.989508
770.000000	77.350442
765.000000	77.732822
760.000000	77.894472
755.000000	78.142708
750.000000	78.431181
745.000000	78.758106
740.000000	79.051046
735.000000	79.298967
730.000000	79.578472
725.000000	79.837107
720.000000	80.139502
715.000000	80.475623
710.000000	80.666592
705.000000	80.867672
700.000000	81.044497
695.000000	81.275872
690.000000	81.554296
685.000000	81.749233
680.000000	81.965945
675.000000	82.104570
670.000000	82.277416
665.000000	82.491946
660.000000	82.710491
655.000000	82.890965
650.000000	83.087463
645.000000	83.304483
640.000000	83.455903
635.000000	83.602802
630.000000	83.911174
625.000000	84.164206
620.000000	84.261141
615.000000	84.404009
610.000000	84.587592
605.000000	84.745888
600.000000	84.841067
595.000000	84.915647
590.000000	85.107422
585.000000	85.253718
580.000000	85.304294
575.000000	85.457251
570.000000	85.639472
565.000000	85.694187
560.000000	85.778386
555.000000	85.856219
550.000000	85.805781
545.000000	85.862151
540.000000	85.815763
535.000000	85.708651
530.000000	85.811520
525.000000	85.785174
520.000000	85.593823
515.000000	85.536864
510.000000	85.471424
505.000000	85.357157
500.000000	85.161713
495.000000	85.047521
490.000000	85.042590
485.000000	84.926206
480.000000	84.586367
475.000000	84.322360
470.000000	84.120971
465.000000	83.866581
460.000000	83.496123
455.000000	83.101255
450.000000	82.704980
445.000000	82.107252
440.000000	81.779431
435.000000	81.622906
430.000000	81.509897
425.000000	81.372150
420.000000	81.199340
415.000000	81.438301
410.000000	81.311792
405.000000	81.273954
400.000000	80.746546
395.000000	80.041466
390.000000	78.801203
385.000000	76.528417
380.000000	74.895479
375.000000	75.733965
370.000000	76.551972
365.000000	74.540881
360.000000	70.641240
355.000000	65.478039
350.000000	59.095045
345.000000	51.157935
340.000000	40.573629
335.000000	29.299829
330.000000	16.603968
325.000000	6.559305
320.000000	2.341084
315.000000	0.622981
310.000000	-0.084833
305.000000	-0.143004
300.000000	-0.217666
295.000000	-0.192841
290.000000	-0.185567
285.000000	-0.312777
280.000000	-0.277961
275.000000	-0.178843
270.000000	-0.030533
265.000000	0.086853
260.000000	-0.052084
255.000000	-0.184576
250.000000	-0.190971
