PE UV       SUBTECH     SPECTRUM    ASCII       PEDS        4.00        
   -1
AISC-23_Single layer_Bot Si_rf.Sample.asc
25/01/29
09:39:17.00
25/01/29
09:39:17.00
Asahi Glass I Pvt Ltd, Taloja

250.000000
1
Lambda 1050
1050L1102031
PerkinElmer UV WinLab 7.3.0.340 / 1.61.00 Lambda 900

0
0
3350/servo 800/4
0
0
UV/VIS
1
1
1
RBeamAtt,SBeamAtt,150mm sphere / downward view, WB InGaAs Detector
0
0
0
0
Program
Program
3350/servo 800/4
3350/0.2 800/0.2
3350/0.2 800/0.2
0
14.00
 
 
 
0
 
800
319.2
800
Front
100
 
S:100 R:100
 
0
0
0
 
0
 
 
 
0
 
 
0
0
0
0
0
 
 
 
 
0
0


0
0

0


#HDR
-1
-1
#GR
nm
%R
1.0
0.0
2500.000000
-5.000000
451
8
26.402176
6.836688
#DATA
2500.000000	6.981680
2495.000000	7.209227
2490.000000	7.156484
2485.000000	6.836688
2480.000000	6.931311
2475.000000	7.006480
2470.000000	7.070887
2465.000000	6.932891
2460.000000	7.011411
2455.000000	7.062640
2450.000000	7.088557
2445.000000	6.992850
2440.000000	7.052788
2435.000000	7.063797
2430.000000	7.031597
2425.000000	7.135588
2420.000000	7.160619
2415.000000	7.148968
2410.000000	7.163731
2405.000000	7.162575
2400.000000	7.096155
2395.000000	7.200730
2390.000000	7.152273
2385.000000	7.175917
2380.000000	7.157141
2375.000000	7.193924
2370.000000	7.188197
2365.000000	7.163983
2360.000000	7.206991
2355.000000	7.183484
2350.000000	7.226527
2345.000000	7.240566
2340.000000	7.231897
2335.000000	7.238885
2330.000000	7.211932
2325.000000	7.240699
2320.000000	7.211613
2315.000000	7.248498
2310.000000	7.230400
2305.000000	7.232779
2300.000000	7.223513
2295.000000	7.198125
2290.000000	7.194307
2285.000000	7.210739
2280.000000	7.220292
2275.000000	7.191462
2270.000000	7.183236
2265.000000	7.160995
2260.000000	7.180637
2255.000000	7.148296
2250.000000	7.161115
2245.000000	7.144349
2240.000000	7.149796
2235.000000	7.139832
2230.000000	7.130765
2225.000000	7.120770
2220.000000	7.122643
2215.000000	7.136945
2210.000000	7.139961
2205.000000	7.156417
2200.000000	7.167522
2195.000000	7.188620
2190.000000	7.220174
2185.000000	7.250523
2180.000000	7.275791
2175.000000	7.305808
2170.000000	7.335948
2165.000000	7.341386
2160.000000	7.359564
2155.000000	7.378133
2150.000000	7.397919
2145.000000	7.397008
2140.000000	7.413115
2135.000000	7.428817
2130.000000	7.439260
2125.000000	7.458364
2120.000000	7.448615
2115.000000	7.475898
2110.000000	7.470293
2105.000000	7.452129
2100.000000	7.466050
2095.000000	7.460380
2090.000000	7.478760
2085.000000	7.477528
2080.000000	7.470706
2075.000000	7.478598
2070.000000	7.474333
2065.000000	7.475106
2060.000000	7.478736
2055.000000	7.465222
2050.000000	7.456672
2045.000000	7.471748
2040.000000	7.469978
2035.000000	7.478848
2030.000000	7.474878
2025.000000	7.478215
2020.000000	7.478396
2015.000000	7.478646
2010.000000	7.500550
2005.000000	7.520082
2000.000000	7.524395
1995.000000	7.525856
1990.000000	7.542609
1985.000000	7.543359
1980.000000	7.552437
1975.000000	7.549932
1970.000000	7.557742
1965.000000	7.555572
1960.000000	7.554950
1955.000000	7.569672
1950.000000	7.568978
1945.000000	7.566567
1940.000000	7.559388
1935.000000	7.565749
1930.000000	7.569704
1925.000000	7.576854
1920.000000	7.575905
1915.000000	7.586063
1910.000000	7.592663
1905.000000	7.610602
1900.000000	7.635636
1895.000000	7.658387
1890.000000	7.673310
1885.000000	7.676229
1880.000000	7.688212
1875.000000	7.682127
1870.000000	7.698610
1865.000000	7.704779
1860.000000	7.692416
1855.000000	7.691513
1850.000000	7.716901
1845.000000	7.721193
1840.000000	7.725199
1835.000000	7.736993
1830.000000	7.747480
1825.000000	7.752819
1820.000000	7.752011
1815.000000	7.766930
1810.000000	7.779482
1805.000000	7.787680
1800.000000	7.784077
1795.000000	7.788611
1790.000000	7.793749
1785.000000	7.800503
1780.000000	7.809707
1775.000000	7.822907
1770.000000	7.827020
1765.000000	7.840211
1760.000000	7.841615
1755.000000	7.855228
1750.000000	7.852064
1745.000000	7.863642
1740.000000	7.874797
1735.000000	7.875097
1730.000000	7.881219
1725.000000	7.878060
1720.000000	7.874387
1715.000000	7.888899
1710.000000	7.891368
1705.000000	7.893025
1700.000000	7.896543
1695.000000	7.896291
1690.000000	7.902574
1685.000000	7.909177
1680.000000	7.913622
1675.000000	7.919626
1670.000000	7.917156
1665.000000	7.920602
1660.000000	7.935532
1655.000000	7.932633
1650.000000	7.938642
1645.000000	7.939462
1640.000000	7.935433
1635.000000	7.936207
1630.000000	7.949148
1625.000000	7.945429
1620.000000	7.952951
1615.000000	7.956521
1610.000000	7.947166
1605.000000	7.946676
1600.000000	7.950006
1595.000000	7.947995
1590.000000	7.940224
1585.000000	7.944619
1580.000000	7.937210
1575.000000	7.932274
1570.000000	7.933073
1565.000000	7.926808
1560.000000	7.908374
1555.000000	7.911407
1550.000000	7.906139
1545.000000	7.907460
1540.000000	7.901616
1535.000000	7.898583
1530.000000	7.894173
1525.000000	7.895703
1520.000000	7.885227
1515.000000	7.888701
1510.000000	7.878872
1505.000000	7.867969
1500.000000	7.873485
1495.000000	7.873672
1490.000000	7.856294
1485.000000	7.848012
1480.000000	7.842497
1475.000000	7.836596
1470.000000	7.827070
1465.000000	7.814545
1460.000000	7.805729
1455.000000	7.796671
1450.000000	7.788428
1445.000000	7.787838
1440.000000	7.769128
1435.000000	7.758324
1430.000000	7.752682
1425.000000	7.747715
1420.000000	7.736412
1415.000000	7.734053
1410.000000	7.734770
1405.000000	7.722874
1400.000000	7.712842
1395.000000	7.724276
1390.000000	7.722281
1385.000000	7.729442
1380.000000	7.732155
1375.000000	7.720311
1370.000000	7.706577
1365.000000	7.707370
1360.000000	7.705011
1355.000000	7.702393
1350.000000	7.691481
1345.000000	7.690066
1340.000000	7.696316
1335.000000	7.690631
1330.000000	7.695819
1325.000000	7.694882
1320.000000	7.680227
1315.000000	7.674097
1310.000000	7.680786
1305.000000	7.676882
1300.000000	7.671570
1295.000000	7.672637
1290.000000	7.666532
1285.000000	7.664510
1280.000000	7.668617
1275.000000	7.661603
1270.000000	7.656322
1265.000000	7.654488
1260.000000	7.658055
1255.000000	7.665480
1250.000000	7.666681
1245.000000	7.672880
1240.000000	7.673694
1235.000000	7.672365
1230.000000	7.677472
1225.000000	7.673963
1220.000000	7.673175
1215.000000	7.683751
1210.000000	7.689849
1205.000000	7.687000
1200.000000	7.692393
1195.000000	7.690947
1190.000000	7.702218
1185.000000	7.712064
1180.000000	7.711191
1175.000000	7.715967
1170.000000	7.730264
1165.000000	7.737165
1160.000000	7.740385
1155.000000	7.738236
1150.000000	7.736052
1145.000000	7.755843
1140.000000	7.767128
1135.000000	7.764349
1130.000000	7.773413
1125.000000	7.787451
1120.000000	7.794775
1115.000000	7.808384
1110.000000	7.818540
1105.000000	7.828770
1100.000000	7.832862
1095.000000	7.839229
1090.000000	7.851276
1085.000000	7.854667
1080.000000	7.858085
1075.000000	7.868212
1070.000000	7.882672
1065.000000	7.891025
1060.000000	7.901310
1055.000000	7.920707
1050.000000	7.931355
1045.000000	7.936050
1040.000000	7.944151
1035.000000	7.951271
1030.000000	7.960065
1025.000000	7.977680
1020.000000	7.991676
1015.000000	8.005039
1010.000000	8.013733
1005.000000	8.021431
1000.000000	8.036188
995.000000	8.046148
990.000000	8.057013
985.000000	8.062913
980.000000	8.077903
975.000000	8.084107
970.000000	8.086074
965.000000	8.080197
960.000000	8.063941
955.000000	8.070052
950.000000	8.089325
945.000000	8.124464
940.000000	8.154812
935.000000	8.174141
930.000000	8.190811
925.000000	8.213757
920.000000	8.245536
915.000000	8.270339
910.000000	8.299532
905.000000	8.327906
900.000000	8.347230
895.000000	8.340543
890.000000	8.371472
885.000000	8.409519
880.000000	8.426586
875.000000	8.496506
870.000000	8.553347
865.000000	8.540577
860.000000	8.596845
855.000000	8.573290
850.000000	8.593617
845.000000	8.673867
840.000000	8.662399
835.000000	8.737398
830.000000	8.812984
825.000000	8.845549
820.000000	8.857984
815.000000	8.884991
810.000000	8.932332
805.000000	8.990365
800.000000	9.124402
795.000000	9.007012
790.000000	8.890786
785.000000	8.937797
780.000000	9.000972
775.000000	9.030468
770.000000	9.092703
765.000000	9.174328
760.000000	9.213863
755.000000	9.265762
750.000000	9.314110
745.000000	9.346289
740.000000	9.390723
735.000000	9.425517
730.000000	9.496005
725.000000	9.556837
720.000000	9.603384
715.000000	9.654172
710.000000	9.709117
705.000000	9.783536
700.000000	9.836790
695.000000	9.909487
690.000000	9.949017
685.000000	9.999469
680.000000	10.067102
675.000000	10.108208
670.000000	10.163439
665.000000	10.244077
660.000000	10.310794
655.000000	10.373003
650.000000	10.423112
645.000000	10.481933
640.000000	10.545947
635.000000	10.612747
630.000000	10.699803
625.000000	10.764937
620.000000	10.823910
615.000000	10.902690
610.000000	10.992947
605.000000	11.048875
600.000000	11.103689
595.000000	11.186700
590.000000	11.261506
585.000000	11.336828
580.000000	11.408577
575.000000	11.494938
570.000000	11.583180
565.000000	11.636703
560.000000	11.696988
555.000000	11.817113
550.000000	11.894658
545.000000	11.949022
540.000000	12.014391
535.000000	12.119254
530.000000	12.221665
525.000000	12.286338
520.000000	12.380375
515.000000	12.492748
510.000000	12.575089
505.000000	12.686783
500.000000	12.766165
495.000000	12.841168
490.000000	12.956865
485.000000	13.056488
480.000000	13.154954
475.000000	13.271881
470.000000	13.361644
465.000000	13.481160
460.000000	13.633856
455.000000	13.727502
450.000000	13.780506
445.000000	13.899453
440.000000	13.982220
435.000000	14.134071
430.000000	14.310766
425.000000	14.488377
420.000000	14.663116
415.000000	14.844603
410.000000	14.977701
405.000000	15.178771
400.000000	15.352885
395.000000	15.531111
390.000000	15.595761
385.000000	15.605997
380.000000	15.720798
375.000000	16.355640
370.000000	16.473478
365.000000	16.761483
360.000000	16.630022
355.000000	16.473257
350.000000	16.305909
345.000000	16.136677
340.000000	16.425383
335.000000	16.385575
330.000000	16.547898
325.000000	17.890691
320.000000	18.613451
315.000000	17.498690
310.000000	17.329263
305.000000	17.950450
300.000000	18.035522
295.000000	18.409449
290.000000	19.081708
285.000000	20.033748
280.000000	20.806760
275.000000	21.653029
270.000000	22.478408
265.000000	22.975831
260.000000	23.729116
255.000000	25.027931
250.000000	26.402176
